Fichero De Datos De SpectraSuite
++++++++++++++++++++++++++++++++++++
Fecha: Fri Oct 04 14:22:23 CEST 2024
Usuario: users
Presente Oscuro Del Espectro: Sí
La Referencia de Presente Del Espectro De: No
Muestreados de los componentes de Número de espectros: 1
Espectrómetros: QEB0653
Tiempo de integración (usec): 5000000 (QEB0653)
Promedio de Espectros Hechos un: 1 (QEB0653)
El Alisar Del Furgón: 0 (QEB0653)
Párrafo de de Corregir del la del del de Eléctrica del obscuridad: No (QEB0653)
Estrobo/Lámpara Permitido: No (QEB0653)
Correct for Detector Non-linearity: No (QEB0653)
Párrafo de de Corregir del la del del de Externa del luz: No (QEB0653)
Procesado del espectro de Número de pixeles en: 1044
>>>>> Comienza Data<<<<< Espectral Procesado Del EL
250,05	27,00
250,85	4,00
251,66	-2,00
252,46	0,00
253,26	7,00
254,07	14,00
254,87	-23,00
255,67	-27,00
256,47	15,00
257,28	28,00
258,08	6,00
258,88	0,00
259,68	-1,00
260,48	2,00
261,29	29,00
262,09	11,00
262,89	-2,00
263,69	4,00
264,49	11,00
265,30	8,00
266,10	15,00
266,90	2,00
267,70	31,00
268,50	16,00
269,30	25,00
270,10	-6,00
270,90	7,00
271,71	-2,00
272,51	13,00
273,31	47,00
274,11	12,00
274,91	3,00
275,71	-6,00
276,51	-3,00
277,31	18,00
278,11	5,00
278,91	11,00
279,71	7,00
280,51	-1,00
281,31	7,00
282,11	14,00
282,91	6,00
283,71	-31,00
284,51	4,00
285,31	14,00
286,11	-7,00
286,91	9,00
287,71	7,00
288,51	16,00
289,31	4,00
290,11	14,00
290,91	27,00
291,71	-7,00
292,50	-9,00
293,30	19,00
294,10	-11,00
294,90	11,00
295,70	23,00
296,50	10,00
297,30	17,00
298,10	25,00
298,89	10,00
299,69	10,00
300,49	14,00
301,29	9,00
302,09	-11,00
302,88	2,00
303,68	-12,00
304,48	-13,00
305,28	-9,00
306,08	-6,00
306,87	5,00
307,67	20,00
308,47	-1,00
309,27	4,00
310,06	6,00
310,86	34,00
311,66	-2,00
312,45	5,00
313,25	27,00
314,05	-12,00
314,84	3,00
315,64	1,00
316,44	9,00
317,23	6,00
318,03	20,00
318,83	12,00
319,62	-4,00
320,42	15,00
321,22	12,00
322,01	-18,00
322,81	16,00
323,60	-4,00
324,40	10,00
325,20	28,00
325,99	21,00
326,79	0,00
327,58	26,00
328,38	6,00
329,17	3,00
329,97	1,00
330,76	-3,00
331,56	-3,00
332,35	8,00
333,15	-4,00
333,94	10,00
334,74	17,00
335,53	14,00
336,33	1,00
337,12	22,00
337,92	9,00
338,71	4,00
339,51	16,00
340,30	3,00
341,09	2,00
341,89	17,00
342,68	30,00
343,48	22,00
344,27	18,00
345,06	3,00
345,86	4,00
346,65	26,00
347,45	35,00
348,24	4,00
349,03	18,00
349,83	32,00
350,62	18,00
351,41	37,00
352,20	10,00
353,00	0,00
353,79	9,00
354,58	44,00
355,38	19,00
356,17	7,00
356,96	40,00
357,75	20,00
358,55	65,00
359,34	76,00
360,13	66,00
360,92	103,00
361,72	107,00
362,51	154,00
363,30	194,00
364,09	240,00
364,88	277,00
365,68	336,00
366,47	374,00
367,26	417,00
368,05	456,00
368,84	471,00
369,63	449,00
370,42	417,00
371,22	394,00
372,01	350,00
372,80	320,00
373,59	277,00
374,38	261,00
375,17	265,00
375,96	222,00
376,75	192,00
377,54	191,00
378,33	169,00
379,12	130,00
379,91	112,00
380,70	122,00
381,49	128,00
382,28	93,00
383,07	81,00
383,86	90,00
384,65	70,00
385,44	85,00
386,23	86,00
387,02	74,00
387,81	89,00
388,60	81,00
389,39	64,00
390,18	55,00
390,97	71,00
391,76	64,00
392,55	56,00
393,34	39,00
394,13	48,00
394,92	69,00
395,70	69,00
396,49	74,00
397,28	58,00
398,07	60,00
398,86	61,00
399,65	86,00
400,44	82,00
401,22	64,00
402,01	90,00
402,80	80,00
403,59	80,00
404,38	65,00
405,16	107,00
405,95	86,00
406,74	102,00
407,53	107,00
408,31	102,00
409,10	112,00
409,89	90,00
410,68	122,00
411,46	123,00
412,25	97,00
413,04	124,00
413,83	110,00
414,61	139,00
415,40	136,00
416,19	142,00
416,97	158,00
417,76	161,00
418,55	149,00
419,33	144,00
420,12	160,00
420,90	139,00
421,69	158,00
422,48	177,00
423,26	163,00
424,05	175,00
424,84	180,00
425,62	200,00
426,41	187,00
427,19	185,00
427,98	207,00
428,76	209,00
429,55	207,00
430,33	196,00
431,12	204,00
431,90	217,00
432,69	191,00
433,47	223,00
434,26	234,00
435,04	220,00
435,83	231,00
436,61	236,00
437,40	207,00
438,18	240,00
438,97	248,00
439,75	250,00
440,54	247,00
441,32	222,00
442,10	248,00
442,89	224,00
443,67	258,00
444,46	274,00
445,24	277,00
446,02	245,00
446,81	263,00
447,59	264,00
448,38	249,00
449,16	274,00
449,94	271,00
450,73	261,00
451,51	289,00
452,29	294,00
453,07	278,00
453,86	285,00
454,64	284,00
455,42	264,00
456,21	278,00
456,99	285,00
457,77	268,00
458,55	276,00
459,34	269,00
460,12	294,00
460,90	255,00
461,68	270,00
462,47	258,00
463,25	268,00
464,03	254,00
464,81	273,00
465,59	308,00
466,38	257,00
467,16	283,00
467,94	256,00
468,72	283,00
469,50	279,00
470,28	258,00
471,06	262,00
471,85	270,00
472,63	252,00
473,41	281,00
474,19	250,00
474,97	250,00
475,75	257,00
476,53	247,00
477,31	267,00
478,09	244,00
478,87	252,00
479,65	262,00
480,43	240,00
481,21	255,00
481,99	233,00
482,77	242,00
483,55	235,00
484,33	237,00
485,11	241,00
485,89	229,00
486,67	224,00
487,45	239,00
488,23	211,00
489,01	205,00
489,79	235,00
490,57	242,00
491,35	207,00
492,13	213,00
492,91	224,00
493,69	208,00
494,47	206,00
495,24	235,00
496,02	228,00
496,80	213,00
497,58	204,00
498,36	186,00
499,14	197,00
499,92	204,00
500,69	204,00
501,47	201,00
502,25	174,00
503,03	195,00
503,81	166,00
504,58	184,00
505,36	205,00
506,14	205,00
506,92	171,00
507,69	175,00
508,47	171,00
509,25	149,00
510,03	145,00
510,80	181,00
511,58	156,00
512,36	161,00
513,14	184,00
513,91	147,00
514,69	147,00
515,47	165,00
516,24	134,00
517,02	145,00
517,80	156,00
518,57	155,00
519,35	161,00
520,13	142,00
520,90	163,00
521,68	154,00
522,45	158,00
523,23	132,00
524,01	124,00
524,78	125,00
525,56	140,00
526,33	142,00
527,11	113,00
527,88	96,00
528,66	124,00
529,44	124,00
530,21	107,00
530,99	134,00
531,76	125,00
532,54	108,00
533,31	111,00
534,09	110,00
534,86	114,00
535,64	134,00
536,41	133,00
537,18	125,00
537,96	135,00
538,73	90,00
539,51	121,00
540,28	95,00
541,06	109,00
541,83	101,00
542,60	103,00
543,38	89,00
544,15	112,00
544,93	105,00
545,70	95,00
546,47	97,00
547,25	109,00
548,02	72,00
548,79	105,00
549,57	94,00
550,34	99,00
551,11	90,00
551,89	92,00
552,66	65,00
553,43	78,00
554,21	68,00
554,98	95,00
555,75	92,00
556,52	105,00
557,30	90,00
558,07	83,00
558,84	62,00
559,61	86,00
560,39	67,00
561,16	65,00
561,93	84,00
562,70	89,00
563,47	78,00
564,25	86,00
565,02	70,00
565,79	67,00
566,56	83,00
567,33	64,00
568,10	66,00
568,88	40,00
569,65	40,00
570,42	69,00
571,19	58,00
571,96	71,00
572,73	42,00
573,50	51,00
574,27	57,00
575,04	53,00
575,81	38,00
576,59	54,00
577,36	68,00
578,13	47,00
578,90	74,00
579,67	49,00
580,44	45,00
581,21	52,00
581,98	48,00
582,75	60,00
583,52	47,00
584,29	47,00
585,06	39,00
585,83	67,00
586,60	67,00
587,37	28,00
588,13	56,00
588,90	54,00
589,67	37,00
590,44	58,00
591,21	50,00
591,98	29,00
592,75	36,00
593,52	48,00
594,29	27,00
595,06	41,00
595,82	23,00
596,59	23,00
597,36	17,00
598,13	39,00
598,90	34,00
599,67	20,00
600,43	15,00
601,20	22,00
601,97	27,00
602,74	25,00
603,51	25,00
604,27	51,00
605,04	24,00
605,81	40,00
606,58	28,00
607,34	47,00
608,11	15,00
608,88	37,00
609,65	29,00
610,41	22,00
611,18	29,00
611,95	62,00
612,71	28,00
613,48	5,00
614,25	25,00
615,01	31,00
615,78	19,00
616,55	35,00
617,31	47,00
618,08	51,00
618,85	27,00
619,61	39,00
620,38	32,00
621,15	55,00
621,91	35,00
622,68	8,00
623,44	40,00
624,21	10,00
624,97	22,00
625,74	31,00
626,51	33,00
627,27	28,00
628,04	10,00
628,80	36,00
629,57	33,00
630,33	11,00
631,10	12,00
631,86	-5,00
632,63	9,00
633,39	26,00
634,16	19,00
634,92	31,00
635,69	30,00
636,45	5,00
637,21	15,00
637,98	7,00
638,74	1,00
639,51	14,00
640,27	-7,00
641,03	16,00
641,80	32,00
642,56	53,00
643,33	24,00
644,09	21,00
644,85	7,00
645,62	3,00
646,38	21,00
647,14	20,00
647,91	13,00
648,67	19,00
649,43	8,00
650,20	8,00
650,96	7,00
651,72	-4,00
652,49	22,00
653,25	32,00
654,01	20,00
654,77	26,00
655,54	-2,00
656,30	35,00
657,06	12,00
657,82	15,00
658,59	6,00
659,35	8,00
660,11	13,00
660,87	27,00
661,63	11,00
662,39	-4,00
663,16	12,00
663,92	26,00
664,68	-4,00
665,44	14,00
666,20	12,00
666,96	6,00
667,73	-1,00
668,49	7,00
669,25	-17,00
670,01	33,00
670,77	-8,00
671,53	12,00
672,29	22,00
673,05	7,00
673,81	31,00
674,57	31,00
675,33	1,00
676,09	7,00
676,85	4,00
677,61	-3,00
678,37	35,00
679,13	-8,00
679,89	18,00
680,65	12,00
681,41	33,00
682,17	4,00
682,93	23,00
683,69	16,00
684,45	-6,00
685,21	15,00
685,97	14,00
686,73	29,00
687,49	20,00
688,25	-7,00
689,01	-3,00
689,77	-10,00
690,53	13,00
691,29	27,00
692,04	-3,00
692,80	5,00
693,56	2,00
694,32	9,00
695,08	0,00
695,84	-11,00
696,59	11,00
697,35	9,00
698,11	16,00
698,87	-3,00
699,63	9,00
700,38	3,00
701,14	2,00
701,90	27,00
702,66	12,00
703,42	4,00
704,17	2,00
704,93	4,00
705,69	16,00
706,44	12,00
707,20	7,00
707,96	25,00
708,72	13,00
709,47	5,00
710,23	14,00
710,99	0,00
711,74	25,00
712,50	0,00
713,26	-9,00
714,01	7,00
714,77	6,00
715,53	-3,00
716,28	9,00
717,04	15,00
717,79	-10,00
718,55	3,00
719,31	0,00
720,06	1,00
720,82	1,00
721,57	8,00
722,33	21,00
723,08	2,00
723,84	-13,00
724,60	29,00
725,35	16,00
726,11	13,00
726,86	-13,00
727,62	19,00
728,37	-9,00
729,13	-3,00
729,88	19,00
730,64	8,00
731,39	-15,00
732,14	8,00
732,90	2,00
733,65	-5,00
734,41	3,00
735,16	22,00
735,92	-8,00
736,67	21,00
737,42	4,00
738,18	-3,00
738,93	42,00
739,69	3,00
740,44	-6,00
741,19	-8,00
741,95	-2,00
742,70	8,00
743,45	15,00
744,21	4,00
744,96	34,00
745,71	-12,00
746,47	-9,00
747,22	9,00
747,97	-1,00
748,72	22,00
749,48	19,00
750,23	-15,00
750,98	20,00
751,74	2,00
752,49	12,00
753,24	4,00
753,99	8,00
754,74	3,00
755,50	27,00
756,25	2,00
757,00	3,00
757,75	20,00
758,50	18,00
759,26	16,00
760,01	9,00
760,76	3,00
761,51	-10,00
762,26	8,00
763,01	16,00
763,77	1,00
764,52	6,00
765,27	9,00
766,02	17,00
766,77	-3,00
767,52	-5,00
768,27	3,00
769,02	7,00
769,77	16,00
770,52	31,00
771,27	-3,00
772,02	4,00
772,77	7,00
773,52	14,00
774,27	-10,00
775,02	18,00
775,77	-8,00
776,52	-11,00
777,27	4,00
778,02	-20,00
778,77	21,00
779,52	13,00
780,27	15,00
781,02	18,00
781,77	0,00
782,52	17,00
783,27	26,00
784,02	3,00
784,77	6,00
785,52	4,00
786,27	8,00
787,02	19,00
787,76	-7,00
788,51	7,00
789,26	-2,00
790,01	6,00
790,76	-5,00
791,51	-3,00
792,26	9,00
793,00	14,00
793,75	13,00
794,50	-11,00
795,25	15,00
796,00	7,00
796,74	-5,00
797,49	6,00
798,24	3,00
798,99	21,00
799,73	-3,00
800,48	5,00
801,23	-15,00
801,98	19,00
802,72	30,00
803,47	7,00
804,22	-4,00
804,96	23,00
805,71	6,00
806,46	8,00
807,20	9,00
807,95	-3,00
808,70	17,00
809,44	-10,00
810,19	-2,00
810,94	11,00
811,68	29,00
812,43	15,00
813,17	20,00
813,92	5,00
814,67	-1,00
815,41	1,00
816,16	19,00
816,90	2,00
817,65	20,00
818,40	-3,00
819,14	-2,00
819,89	17,00
820,63	1,00
821,38	5,00
822,12	6,00
822,87	12,00
823,61	23,00
824,36	-10,00
825,10	-4,00
825,85	-18,00
826,59	14,00
827,34	8,00
828,08	10,00
828,82	-9,00
829,57	-14,00
830,31	-3,00
831,06	3,00
831,80	7,00
832,55	5,00
833,29	5,00
834,03	3,00
834,78	-32,00
835,52	4,00
836,26	12,00
837,01	43,00
837,75	16,00
838,49	-16,00
839,24	20,00
839,98	6,00
840,72	-4,00
841,47	16,00
842,21	11,00
842,95	7,00
843,70	8,00
844,44	13,00
845,18	-7,00
845,92	-24,00
846,67	8,00
847,41	-2,00
848,15	13,00
848,89	12,00
849,64	13,00
850,38	15,00
851,12	-17,00
851,86	4,00
852,60	3,00
853,35	34,00
854,09	22,00
854,83	-10,00
855,57	-2,00
856,31	-10,00
857,05	21,00
857,80	13,00
858,54	8,00
859,28	14,00
860,02	16,00
860,76	0,00
861,50	-13,00
862,24	-12,00
862,98	6,00
863,72	15,00
864,46	6,00
865,20	-3,00
865,95	14,00
866,69	-12,00
867,43	-4,00
868,17	2,00
868,91	-24,00
869,65	18,00
870,39	25,00
871,13	7,00
871,87	-16,00
872,61	-12,00
873,35	-10,00
874,09	-2,00
874,82	-3,00
875,56	5,00
876,30	-1,00
877,04	1,00
877,78	-2,00
878,52	7,00
879,26	2,00
880,00	7,00
880,74	14,00
881,48	5,00
882,22	-13,00
882,95	8,00
883,69	5,00
884,43	10,00
885,17	-3,00
885,91	4,00
886,65	11,00
887,39	12,00
888,12	3,00
888,86	-23,00
889,60	26,00
890,34	7,00
891,07	0,00
891,81	16,00
892,55	-13,00
893,29	-13,00
894,03	13,00
894,76	20,00
895,50	11,00
896,24	16,00
896,97	26,00
897,71	5,00
898,45	23,00
899,19	15,00
899,92	4,00
900,66	19,00
901,40	-6,00
902,13	1,00
902,87	23,00
903,61	17,00
904,34	1,00
905,08	-10,00
905,81	31,00
906,55	18,00
907,29	14,00
908,02	-19,00
908,76	20,00
909,49	9,00
910,23	19,00
910,97	1,00
911,70	-21,00
912,44	6,00
913,17	31,00
913,91	-4,00
914,64	-5,00
915,38	-4,00
916,11	5,00
916,85	32,00
917,58	6,00
918,32	-7,00
919,05	8,00
919,79	12,00
920,52	-9,00
921,26	-5,00
921,99	-6,00
922,73	1,00
923,46	-1,00
924,20	-5,00
924,93	11,00
925,66	2,00
926,40	-19,00
927,13	5,00
927,87	-8,00
928,60	-3,00
929,33	-4,00
930,07	14,00
930,80	24,00
931,53	-15,00
932,27	14,00
933,00	16,00
933,73	11,00
934,47	-6,00
935,20	-4,00
935,93	19,00
936,67	-20,00
937,40	-4,00
938,13	10,00
938,86	-10,00
939,60	18,00
940,33	-10,00
941,06	16,00
941,79	-4,00
942,53	10,00
943,26	16,00
943,99	7,00
944,72	-11,00
945,45	16,00
946,19	-2,00
946,92	0,00
947,65	12,00
948,38	-15,00
949,11	12,00
949,84	-1,00
950,58	8,00
951,31	-13,00
952,04	-23,00
952,77	9,00
953,50	-5,00
954,23	-3,00
954,96	-3,00
955,69	7,00
956,43	11,00
957,16	17,00
957,89	-5,00
958,62	6,00
959,35	-14,00
960,08	13,00
960,81	-19,00
961,54	1,00
962,27	14,00
963,00	16,00
963,73	12,00
964,46	-3,00
965,19	11,00
965,92	7,00
966,65	5,00
967,38	-17,00
968,11	10,00
968,84	2,00
969,57	9,00
970,30	13,00
971,02	8,00
971,75	4,00
972,48	6,00
973,21	6,00
973,94	12,00
974,67	-29,00
975,40	1,00
976,13	5,00
976,86	-3,00
977,58	-24,00
978,31	-8,00
979,04	-4,00
979,77	15,00
980,50	8,00
981,23	12,00
981,95	-13,00
982,68	4,00
983,41	27,00
984,14	-5,00
984,86	5,00
985,59	3,00
986,32	12,00
987,05	-4,00
987,78	17,00
988,50	-12,00
989,23	24,00
989,96	-2,00
990,68	6,00
991,41	16,00
992,14	9,00
992,86	15,00
993,59	21,00
994,32	6,00
995,04	11,00
995,77	5,00
996,50	10,00
997,22	-2,00
997,95	5,00
998,68	9,00
999,40	21,00
1000,13	-7,00
1000,86	3,00
1001,58	1,00
1002,31	-2,00
1003,03	13,00
1003,76	20,00
1004,48	-8,00
1005,21	22,00
1005,93	-15,00
1006,66	-8,00
1007,39	-17,00
1008,11	-1,00
1008,84	6,00
1009,56	2,00
1010,29	14,00
1011,01	1,00
1011,74	12,00
1012,46	-9,00
1013,19	3,00
1013,91	0,00
1014,63	-10,00
1015,36	24,00
1016,08	18,00
1016,81	-7,00
1017,53	8,00
1018,26	-23,00
1018,98	1,00
1019,70	17,00
1020,43	-6,00
1021,15	-7,00
1021,87	7,00
1022,60	3,00
1023,32	9,00
1024,05	21,00
1024,77	26,00
1025,49	-14,00
1026,22	0,00
1026,94	-14,00
1027,66	-1,00
1028,38	28,00
1029,11	7,00
1029,83	-8,00
1030,55	8,00
1031,28	-2,00
1032,00	-4,00
1032,72	6,00
1033,44	2,00
1034,17	-5,00
1034,89	1,00
1035,61	-24,00
1036,33	13,00
1037,05	6,00
1037,78	-23,00
1038,50	2,00
1039,22	3,00
1039,94	12,00
1040,66	-11,00
1041,39	7,00
1042,11	-1,00
1042,83	4,00
1043,55	0,00
1044,27	0,00
1044,99	0,00
>>>>> Data<<<<< Espectral Procesado Extremo
